File: Test-CV-with_Flat-ITO.txt
WE(1).Potential (V)	WE(1).Current (A)	WE(1).Current (A)	WE(1).Current (A)	WE(1).Current (A)	WE(1).Current (A)	WE(1).Current (A)	WE(1).Current (A)	WE(1).Current (A)	WE(1).Current (A)	WE(1).Current (A)
-0.197968	-3.9917e-05	-1.10016e-05	-9.86633e-06	-8.88977e-06	-7.99866e-06	-7.16858e-06	-6.30188e-06	-5.41077e-06	-4.50134e-06	-3.45764e-06
-0.114838	-2.02576e-05	-1.12915e-06	-8.81958e-07	-7.69043e-07	-8.3313e-07	-7.99561e-07	-8.88062e-07	-9.58252e-07	-1.10779e-06	-1.32141e-06
-0.0316071	-1.36871e-05	-3.35693e-07	-2.89917e-07	-2.34985e-07	-2.62451e-07	-3.63159e-07	-4.39453e-07	-6.16455e-07	-8.14819e-07	-1.11084e-06
0.0513	-9.92126e-06	8.23975e-08	1.80054e-07	1.49536e-07	7.93457e-08	-7.62939e-08	-1.89209e-07	-3.87573e-07	-6.073e-07	-9.46045e-07
0.134277	-6.65283e-06	8.17871e-07	8.48389e-07	7.41577e-07	6.2561e-07	4.39453e-07	2.92969e-07	4.27246e-08	-2.80762e-07	-6.40869e-07
0.217133	-5.52368e-07	4.75769e-06	4.71802e-06	4.49524e-06	4.25415e-06	3.9856e-06	3.6438e-06	3.20129e-06	2.64893e-06	1.81885e-06
0.300049	3.54187e-05	4.0387e-05	3.98254e-05	3.90198e-05	3.80646e-05	3.68164e-05	3.53241e-05	3.34045e-05	3.06641e-05	2.60803e-05
0.382935	0.000116638	0.000123779	0.000120514	0.000116577	0.000112061	0.000106537	9.98535e-05	9.13391e-05	7.98035e-05	6.18591e-05
0.465759	0.000143677	0.000149414	0.000142914	0.000135498	0.000127045	0.000117493	0.000106476	9.33838e-05	7.70569e-05	5.46875E-05
0.548737	0.000136322	0.000140778	0.000133209	0.000124847	0.000115662	0.00010553	9.41772e-05	8.11462e-05	6.55212e-05	4.51172e-05
0.631683	0.000123016	0.000126892	0.000119598	0.000111481	0.000102753	9.31702e-05	8.26416e-05	7.06787e-05	5.65796e-05	3.85223e-05
0.714813	0.000110474	0.000114105	0.0001073	9.9823e-05	9.17358e-05	8.30078e-05	7.33643e-05	6.25916e-05	4.98657e-05	3.38165e-05
0.798035	0.000100006	0.000103394	9.71375e-05	9.0271e-05	8.28857e-05	7.49207e-05	6.61316e-05	5.63354e-05	4.48792e-05	3.0365e-05
0.719635	7.80334e-05	8.13904e-05	7.69348e-05	7.18384e-05	6.64368e-05	6.04553e-05	5.3894e-05	4.63623e-05	3.74054e-05	2.57935e-05
0.636505	6.53076e-05	6.8512e-05	6.49719e-05	6.10046e-05	5.66711e-05	5.18188e-05	4.63715e-05	4.01917e-05	3.27026e-05	2.28119e-05
0.553619	5.39856e-05	5.68848e-05	5.42297e-05	5.11475e-05	4.77234e-05	4.39117e-05	3.95996e-05	3.45734e-05	2.84058e-05	2.00897e-05
0.470673	4.15497e-05	4.41925e-05	4.22852e-05	4.02069e-05	3.77747e-05	3.49915e-05	3.18542e-05	2.81555e-05	2.34772e-05	1.69586e-05
0.387848	2.14661e-05	2.35413e-05	2.26898e-05	2.16125e-05	2.04498e-05	1.90887e-05	1.7514e-05	1.56097e-05	1.31287e-05	9.58557e-06
0.304932	-2.44354e-05	-2.31293e-05	-2.30103e-05	-2.29218e-05	-2.27875e-05	-2.25403e-05	-2.22595e-05	-2.17316e-05	-2.08801e-05	-1.90063e-05
0.221954	-6.40869e-05	-6.15234e-05	-6.03333e-05	-5.89905e-05	-5.74341e-05	-5.55115e-05	-5.31311e-05	-4.99268e-05	-4.53003e-05	-3.74146e-05
0.139099	-7.58972e-05	-7.04651e-05	-6.80847e-05	-6.55212e-05	-6.24695e-05	-5.9082e-05	-5.49927e-05	-4.98657e-05	-4.30695e-05	-3.28491e-05
0.0561829	-7.57446e-05	-6.81458e-05	-6.50635e-05	-6.17981e-05	-5.81665e-05	-5.41077e-05	-4.93561e-05	-4.37592e-05	-3.67096e-05	-2.68372e-05
-0.0267334	-7.02515e-05	-6.1615e-05	-5.83801e-05	-5.49011e-05	-5.12085e-05	-4.71222e-05	-4.25415e-05	-3.71979e-05	-3.07556e-05	-2.20551e-05
-0.109894	-6.31104e-05	-5.42297e-05	-5.09644e-05	-4.77173e-05	-4.42352e-05	-4.05426e-05	-3.6319e-05	-3.15399e-05	-2.58728e-05	-1.8399e-05
-0.193085	-5.61829e-05	-4.7467e-05	-4.44061e-05	-4.14642e-05	-3.8266e-05	-3.48907e-05	-3.12439e-05	-2.69928e-05	-2.20612e-05	-1.56616e-05
-0.124603	-3.97369e-05	-3.27942e-05	-3.09753e-05	-2.90863e-05	-2.70721e-05	-2.49481e-05	-2.25159e-05	-1.97693e-05	-1.64795e-05	-1.20392e-05
-0.0413696	-3.04596e-05	-2.50336e-05	-2.36053e-05	-2.23297e-05	-2.08405e-05	-1.93207e-05	-1.76086e-05	-1.56097e-05	-1.32019e-05	-9.87244e-06
0.0416687	-2.34192e-05	-1.89545e-05	-1.79871e-05	-1.70227e-05	-1.60858e-05	-1.4978e-05	-1.37665e-05	-1.23627e-05	-1.05988e-05	-8.12988e-06
0.124512	-1.69891e-05	-1.35986e-05	-1.29456e-05	-1.23444e-05	-1.17004e-05	-1.10992e-05	-1.03058e-05	-9.38416e-06	-8.19702e-06	-6.47583e-06
0.207397	-8.73413e-06	-6.37817e-06	-6.03333e-06	-5.80444e-06	-5.54504e-06	-5.29175e-06	-4.97131e-06	-4.58679e-06	-4.07104e-06	-3.29285e-06
0.290283	2.27417e-05	2.45911e-05	2.44293e-05	2.40967e-05	2.36359e-05	2.30164e-05	2.22687e-05	2.12708e-05	1.98181e-05	1.72516e-05
0.37323	0.000100494	0.0001026	0.000100433	9.765625E-05	9.42993e-05	9.0271e-05	8.52661e-05	7.88269e-05	6.98547e-05	5.54504e-05
0.456177	0.000130219	0.000130737	0.000125366	0.000119202	0.000112274	0.000104279	9.49707e-05	8.38318e-05	6.97327e-05	5.01404e-05
0.539001	0.000123322	0.000122711	0.000116455	0.000109344	0.0001015625	9.29565e-05	8.31604e-05	7.19604e-05	5.83496e-05	4.0509e-05
0.621796	0.000110504	0.000109955	0.000103851	9.69543e-05	8.95081e-05	8.13293e-05	7.22656e-05	6.20117e-05	4.97742e-05	3.40973e-05
0.704926	9.88464e-05	9.84802e-05	9.26514e-05	8.63647e-05	7.94983e-05	7.1991e-05	6.37207e-05	5.44739e-05	4.35364e-05	2.96661e-05
0.787659	8.91724e-05	8.91113e-05	8.37402e-05	7.78809e-05	7.15942e-05	6.47888e-05	5.72815e-05	4.88251e-05	3.89648e-05	2.64923e-05
0.729431	7.01904e-05	7.06482e-05	6.67419e-05	6.2439e-05	5.78003e-05	5.26123e-05	4.68445e-05	4.02863e-05	3.25439e-05	2.24945e-05
0.646362	5.83801e-05	5.94177e-05	5.63965e-05	5.29175e-05	4.90967e-05	4.49371e-05	4.02679e-05	3.48724e-05	2.83905e-05	1.9873e-05
0.563385	4.85016e-05	4.9585e-05	4.72656e-05	4.45374e-05	4.15863e-05	3.82294e-05	3.44666e-05	3.00812e-05	2.47284e-05	1.75385e-05
0.480469	3.7854e-05	3.89648e-05	3.72955e-05	3.53912e-05	3.32733e-05	3.08105e-05	2.8006e-05	2.47375e-05	2.06024e-05	1.49323e-05
0.397522	2.1167e-05	2.22504e-05	2.14508e-05	2.05048e-05	1.93634e-05	1.81e-05	1.65955e-05	1.48132e-05	1.24847e-05	9.20715e-06
0.314728	-2.02911e-05	-1.95099e-05	-1.94e-05	-1.92719e-05	-1.91864e-05	-1.89941e-05	-1.87378e-05	-1.8338e-05	-1.75903e-05	-1.59973e-05
0.231781	-6.41479e-05	-6.25E-05	-6.13708e-05	-6.00891e-05	-5.85632e-05	-5.67322e-05	-5.43823e-05	-5.1239e-05	-4.66888e-05	-3.88458e-05
0.148865	-7.99866e-05	-7.58972e-05	-7.33032e-05	-7.06177e-05	-6.75354e-05	-6.38733e-05	-5.95703e-05	-5.41077e-05	-4.68048e-05	-3.57178e-05
0.065979	-8.17261e-05	-7.57446e-05	-7.23877e-05	-6.87866e-05	-6.47583e-05	-6.03027e-05	-5.50537e-05	-4.87701e-05	-4.08966e-05	-2.97943e-05
-0.0169556	-7.70569e-05	-7.02515e-05	-6.65283e-05	-6.26221e-05	-5.83801e-05	-5.37415e-05	-4.84894e-05	-4.23584e-05	-3.48999e-05	-2.48383e-05
-0.100128	-7.01904e-05	-6.30493e-05	-5.93567e-05	-5.5481e-05	-5.14526e-05	-4.70245e-05	-4.21295e-05	-3.65326e-05	-2.98248e-05	-2.10022e-05
-0.183289	-6.30493e-05	-5.59998e-05	-5.24597e-05	-4.88983e-05	-4.5163e-05	-4.11743e-05	-3.67126e-05	-3.16772e-05	-2.5769e-05	-1.80756e-05
-0.134399	-4.61548e-05	-4.0564e-05	-3.815e-05	-3.57819e-05	-3.32397e-05	-3.05054e-05	-2.74719e-05	-2.39685e-05	-1.98212e-05	-1.42578e-05
-0.051239	-3.55621e-05	-3.12653e-05	-2.94495e-05	-2.7771e-05	-2.59583e-05	-2.39594e-05	-2.17529e-05	-1.91925e-05	-1.60614e-05	-1.17767e-05
0.031897	-2.76031e-05	-2.41425e-05	-2.28943e-05	-2.16248e-05	-2.03217e-05	-1.89087e-05	-1.73004e-05	-1.54358e-05	-1.31042e-05	-9.82056e-06
0.114746	-2.04041e-05	-1.77643e-05	-1.6983e-05	-1.61804e-05	-1.53534e-05	-1.43677e-05	-1.32904e-05	-1.20056e-05	-1.03699e-05	-7.96204e-06
0.197662	-1.21521e-05	-1.02539e-05	-9.84802e-06	-9.3811e-06	-8.97217e-06	-8.52966e-06	-7.94983e-06	-7.26318e-06	-6.39038e-06	-5.02014e-06
0.280518	1.47217e-05	1.59729e-05	1.58417e-05	1.57379e-05	1.5451e-05	1.51215e-05	1.47339e-05	1.4212e-05	1.3324e-05	1.17981e-05
0.363464	8.984375E-05	9.11255e-05	8.94775e-05	8.73108e-05	8.46558e-05	8.13904e-05	7.73315e-05	7.2052e-05	6.45447e-05	5.22461e-05
0.44632	0.000125702	0.000125061	0.000120392	0.000114777	0.000108368	0.000100983	9.23462e-05	8.19702e-05	6.8634e-05	4.98657e-05
0.529236	0.000119934	0.000118225	0.000112183	0.000105652	9.82971e-05	9.00574e-05	8.08105e-05	7.00989e-05	5.70679e-05	3.98621e-05
0.612091	0.000107452	0.000105469	9.96704e-05	9.31396e-05	8.60901e-05	7.83386e-05	6.97021e-05	5.9845e-05	4.82117e-05	3.3197e-05
0.69516	9.54895e-05	9.39941e-05	8.84094e-05	8.24585e-05	7.59888e-05	6.89087e-05	6.10962e-05	5.22461e-05	4.18549e-05	2.86682e-05
0.778198	8.57544e-05	8.45642e-05	7.95288e-05	7.40662e-05	6.80847e-05	6.16455e-05	5.45654e-05	4.65302e-05	3.72162e-05	2.54242e-05
0.739166	6.80237e-05	6.75049e-05	6.38733e-05	5.97534e-05	5.52063e-05	5.0293e-05	4.47662e-05	3.85468e-05	3.11554e-05	2.16095e-05
0.656097	5.65796e-05	5.65186e-05	5.36194e-05	5.0415e-05	4.66919e-05	4.27765e-05	3.83423e-05	3.32245e-05	2.70782e-05	1.89972e-05
0.57312	4.69147e-05	4.72961e-05	4.49707e-05	4.245e-05	3.95813e-05	3.64166e-05	3.28308e-05	2.8653e-05	2.35596e-05	1.67694e-05
0.490234	3.70483e-05	3.74939e-05	3.58246e-05	3.40759e-05	3.19458e-05	2.96722e-05	2.69379e-05	2.37396e-05	1.97876e-05	1.43463e-05
0.407379	2.2345e-05	2.30377e-05	2.21741e-05	2.11365e-05	2.005e-05	1.87408e-05	1.71814e-05	1.53473e-05	1.30035e-05	9.64966e-06
0.324463	-1.49506e-05	-1.43829e-05	-1.43951e-05	-1.43402e-05	-1.42548e-05	-1.41846e-05	-1.40686e-05	-1.38062e-05	-1.33362e-05	-1.22467e-05
0.241547	-6.19202e-05	-6.06995e-05	-5.96313e-05	-5.85022e-05	-5.71289e-05	-5.54199e-05	-5.32837e-05	-5.03845e-05	-4.61548e-05	-3.87451e-05
0.15863	-8.09631e-05	-7.74841e-05	-7.50732e-05	-7.23572e-05	-6.93359e-05	-6.57349e-05	-6.14319e-05	-5.59387e-05	-4.85657e-05	-3.7262e-05
0.0757141	-8.43506e-05	-7.92236e-05	-7.57141e-05	-7.20215e-05	-6.79016e-05	-6.32629e-05	-5.78308e-05	-5.13611e-05	-4.30573e-05	-3.13568e-05
-0.00717163	-8.05969e-05	-7.44934e-05	-7.05872e-05	-6.64673e-05	-6.20422e-05	-5.70984e-05	-5.15137e-05	-4.50195e-05	-3.70605e-05	-2.63031e-05
-0.0903931	-7.37915e-05	-6.74744e-05	-6.35681e-05	-5.95093e-05	-5.51453e-05	-5.0415e-05	-4.51294e-05	-3.91144e-05	-3.18787e-05	-2.2345e-05
-0.173462	-6.68335e-05	-6.04858e-05	-5.65796e-05	-5.28564e-05	-4.86786e-05	-4.43695e-05	-3.95538e-05	-3.41187e-05	-2.76733e-05	-1.92963e-05
-0.144135	-5.00183e-05	-4.51294e-05	-4.24225e-05	-3.96698e-05	-3.68988e-05	-3.38013e-05	-3.03009e-05	-2.63947e-05	-2.16858e-05	-1.54327e-05
-0.0610046	-3.87329e-05	-3.4787e-05	-3.28857e-05	-3.09418e-05	-2.8894e-05	-2.66174e-05	-2.41272e-05	-2.11853e-05	-1.76331e-05	-1.28082e-05
0.005078125	-3.19153e-05	-2.8537e-05	-2.71484e-05	-2.55646e-05	-2.39746e-05	-2.22351e-05	-2.02637e-05	-1.79443e-05	-1.5097e-05	-1.11206e-05