File: Test-CV-with_Porous-ITO.txt
WE(1).Potential (V)	WE(1).Current (A)	WE(1).Current (A)	WE(1).Current (A)	WE(1).Current (A)	WE(1).Current (A)	WE(1).Current (A)	WE(1).Current (A)	WE(1).Current (A)	WE(1).Current (A)	WE(1).Current (A)	WE(1).Current (A)	WE(1).Current (A)	WE(1).Current (A)	WE(1).Current (A)	WE(1).Current (A)	WE(1).Current (A)	WE(1).Current (A)	WE(1).Current (A)	WE(1).Current (A)	WE(1).Current (A)	WE(1).Current (A)
-0.197998	-0.00219025	-0.00203857	-0.00199036	-0.00193054	-0.00186279	-0.00177734	-0.00166962	-0.00152771	-0.00132019	-0.00116882	-0.000950623	-0.000830688	-0.00067749	-0.000585327	-0.0003526	-0.000223083	-8.77991e-05	-3.84186e-05	-2.4765e-05	-1.82709e-05	-1.10229e-05
-0.0291046	0.00023764	0.000358673	0.000353638	0.00034433	0.000329437	0.000307068	0.000274536	0.000228271	0.000164917	0.00012674	8.49609e-05	6.7627e-05	4.99268e-05	4.10278e-05	2.25189e-05	1.28601e-05	3.86353e-06	5.43213e-07	-1.09863e-07	-2.34985e-07	-3.96729e-07
0.138977	0.00063324	0.000652771	0.000601501	0.000543823	0.000480164	0.000410858	0.000336029	0.00025647	0.000173096	0.000130524	8.68225e-05	6.90918e-05	5.09949e-05	4.18823e-05	2.31598e-05	1.34064e-05	4.41895e-06	1.08337e-06	3.14331e-07	8.8501e-08	-1.70898e-07
0.307251	0.000856323	0.000841064	0.000784912	0.000725708	0.000664673	0.000601196	0.000534973	0.00046286	0.000379089	0.000327423	0.000263733	0.000231812	0.00019455	0.000172455	0.000121033	8.77686e-05	4.87732e-05	2.63489e-05	1.67419e-05	1.17279e-05	6.79626e-06
0.475525	0.00136475	0.00132324	0.00124298	0.00115173	0.00104828	0.00092804	0.000785828	0.000613403	0.000398712	0.000277649	0.000163452	0.000124878	9.1217e-05	7.56531e-05	4.65179e-05	3.17566e-05	1.74347e-05	1.04004e-05	7.3822e-06	5.65491e-06	3.72925e-06
0.643707	0.00134552	0.00126556	0.00113037	0.000984802	0.000829773	0.000668335	0.000506592	0.000355103	0.000223389	0.0001651	0.000110748	8.92639e-05	6.80542e-05	5.7373e-05	3.60107e-05	2.48016e-05	1.39771e-05	8.73413e-06	6.36902e-06	4.95911e-06	3.49121e-06
0.787964	0.000863953	0.000778503	0.000658569	0.000540466	0.000427612	0.000322754	0.000228516	0.000146637	7.91626e-05	5.14221e-05	3.03711e-05	2.38495e-05	1.92627e-05	1.73859e-05	1.5152e-05	1.38672e-05	1.10504e-05	7.94678e-06	5.91736e-06	4.62952e-06	3.33557e-06
0.619385	-0.00014502	-0.000155945	-0.000171082	-0.000176941	-0.000173187	-0.000159576	-0.000136597	-0.000105621	-6.87256e-05	-4.89807e-05	-2.83447e-05	-2.02698e-05	-1.21918e-05	-8.39539e-06	-9.70459e-07	2.32544e-06	4.23584e-06	3.85742e-06	3.15552e-06	2.57874e-06	1.98975e-06
0.451202	-0.000414917	-0.000390808	-0.000364685	-0.000332672	-0.000295532	-0.000253632	-0.00020752	-0.000157471	-0.000103943	-7.62024e-05	-4.776e-05	-3.64319e-05	-2.50763e-05	-1.95648e-05	-8.47168e-06	-3.11584e-06	1.15662e-06	2.09351e-06	1.95007e-06	1.69373e-06	1.3916e-06
0.282898	-0.000679016	-0.000644226	-0.000606689	-0.000565186	-0.00052063	-0.000472565	-0.000420715	-0.000363037	-0.000296021	-0.000255829	-0.000205994	-0.00018161	-0.000153229	-0.00013678	-9.78394e-05	-7.24487e-05	-4.15955e-05	-2.27173e-05	-1.43127e-05	-9.9884e-06	-5.52979e-06
0.114716	-0.00129425	-0.00124481	-0.00117096	-0.00108612	-0.000990295	-0.000880432	-0.000752258	-0.000596924	-0.000402374	-0.0002890625	-0.000174377	-0.000132507	-9.47571e-05	-7.75757e-05	-4.58099e-05	-3.05389e-05	-1.58936e-05	-8.85925e-06	-6.02722e-06	-4.49829e-06	-2.74048e-06
-0.0537109	-0.00134583	-0.00123474	-0.00110901	-0.000973206	-0.000829163	-0.000679932	-0.000530396	-0.000385712	-0.000250244	-0.000186371	-0.00012442	-0.000100525	-7.65381e-05	-6.47583e-05	-4.00177e-05	-2.70508e-05	-1.38885e-05	-7.54395e-06	-5.13e-06	-3.86963e-06	-2.55127e-06
-0.178406	-0.000797119	-0.000697937	-0.000594177	-0.00049054	-0.000389709	-0.000291962	-0.0001987	-0.000112061	-3.71582e-05	-8.48999e-06	1.00128e-05	1.25946e-05	1.20667e-05	1.02142e-05	4.40674e-06	-2.53296e-07	-4.23889e-06	-4.79431e-06	-4.17175e-06	-3.41187e-06	-2.47803e-06
-0.00953064	0.000342957	0.000358459	0.000360199	0.000352783	0.000335754	0.000308502	0.000269684	0.00021817	0.000153168	0.00011615	7.66296e-05	6.05469e-05	4.40979e-05	3.60046e-05	1.91589e-05	1.05988e-05	2.91138e-06	3.2959e-07	-1.67847e-07	-2.41089e-07	-2.74658e-07
0.1586	0.000605164	0.000578308	0.000538025	0.000490356	0.00043631	0.000375824	0.000309326	0.000237396	0.000161072	0.00012149	8.078e-05	6.41174e-05	4.72076e-05	3.87146e-05	2.13348e-05	1.22925e-05	4.04358e-06	1.01624e-06	3.14331e-07	7.32422e-08	-9.46045e-08
0.326843	0.000877686	0.000843506	0.00079834	0.000749817	0.000697327	0.000640869	0.000578918	0.000508118	0.000419586	0.000362732	0.000290192	0.000253052	0.000209259	0.000183228	0.000123444	8.62122e-05	4.54742e-05	2.42737e-05	1.57196e-05	1.13129e-05	6.88171e-06
0.495056	0.00136749	0.00130005	0.00121368	0.00111572	0.00100433	0.000876465	0.000727539	0.000549622	0.000340149	0.000232513	0.000139832	0.000108673	8.05969e-05	6.71692e-05	4.16016e-05	2.84698e-05	1.57928e-05	9.56421e-06	6.83899e-06	5.21545e-06	3.479e-06
0.6633	0.00125488	0.0011496	0.00102081	0.000883484	0.000739746	0.000593872	0.000450745	0.000319061	0.0002034	0.000151184	0.000101685	8.20923e-05	6.26526e-05	5.28564e-05	3.33344e-05	2.30682e-05	1.32965e-05	8.48694e-06	6.21338e-06	4.80347e-06	3.40576e-06
0.769043	0.000556946	0.000472504	0.00037912	0.000290344	0.000208923	0.000137024	7.70264e-05	3.17719e-05	4.84619e-06	-5.92041e-07	5.85937e-07	2.35596e-06	4.97437e-06	6.14624e-06	8.73718e-06	9.42993e-06	8.57849e-06	6.52466e-06	4.96826e-06	3.92456e-06	2.88696e-06
0.599854	-0.000224762	-0.000232117	-0.000233307	-0.000226227	-0.000211212	-0.00018811	-0.000157501	-0.000120544	-7.88574e-05	-5.69153e-05	-3.41614e-05	-2.51312e-05	-1.61285e-05	-1.18042e-05	-3.25012e-06	6.89697e-07	3.34167e-06	3.35693e-06	2.78625e-06	2.31628e-06	1.80664e-06
0.431671	-0.000458099	-0.000431976	-0.0003992	-0.000361359	-0.000319275	-0.000272949	-0.000222992	-0.000169708	-0.00011319	-8.38623e-05	-5.36194e-05	-4.14886e-05	-2.92053e-05	-2.31873e-05	-1.09436e-05	-4.84314e-06	2.47192e-07	1.61133e-06	1.60522e-06	1.44653e-06	1.22986e-06
0.263367	-0.000757751	-0.000723572	-0.000683594	-0.000640259	-0.000593567	-0.000543518	-0.000488678	-0.000428223	-0.000355621	-0.000308319	-0.000248505	-0.000218964	-0.000184235	-0.000163757	-0.000115295	-8.37708e-05	-4.6344e-05	-2.4588e-05	-1.53259e-05	-1.05957e-05	-5.91736e-06
0.0952148	-0.00133331	-0.00127441	-0.00119507	-0.00110382	-0.00100037	-0.000881348	-0.0007421875	-0.000574951	-0.000372406	-0.000262695	-0.000159393	-0.000122925	-8.94775e-05	-7.38831e-05	-4.42535e-05	-2.95685e-05	-1.52771e-05	-8.42896e-06	-5.68542e-06	-4.23279e-06	-2.59094e-06
-0.0732727	-0.00134186	-0.00122742	-0.00109802	-0.000959778	-0.00081604	-0.000669556	-0.000524292	-0.000384277	-0.000252014	-0.000188843	-0.000127136	-0.000103058	-7.87964e-05	-6.6864e-05	-4.15436e-05	-2.81982e-05	-1.45844e-05	-7.99255e-06	-5.48401e-06	-4.22363e-06	-2.8656e-06
-0.158875	-0.000559998	-0.000471527	-0.000381226	-0.000293274	-0.000209381	-0.000130798	-6.00891e-05	-6.98853e-07	3.9093e-05	4.62769e-05	4.13025e-05	3.51135e-05	2.67456e-05	2.18018e-05	1.05225e-05	4.14429e-06	-1.44043e-06	-2.948e-06	-2.72827e-06	-2.35596e-06	-1.80359e-06
0.010022	0.000385864	0.000392273	0.000386902	0.000372864	0.000349854	0.000317108	0.000273682	0.000218658	0.000151855	0.000114594	7.52258e-05	5.93262e-05	4.31274e-05	3.51837e-05	1.87195e-05	1.03638e-05	2.89307e-06	3.84521e-07	-8.54492e-08	-1.86157e-07	-2.19727e-07
0.178131	0.000612488	0.000581665	0.000539856	0.000491211	0.00043634	0.000375397	0.000309143	0.00023819	0.000163055	0.000124023	8.36182e-05	6.70166e-05	5.00183e-05	4.13116e-05	2.34283e-05	1.39374e-05	5.02625e-06	1.51367e-06	5.82886e-07	2.65503e-07	3.35693e-08
0.346222	0.000942688	0.000906372	0.000862122	0.000813599	0.000761108	0.000703125	0.000637207	0.000559692	0.000459442	0.000393127	0.000306946	0.000262634	0.000210815	0.000180664	0.000113708	7.52869e-05	3.78357e-05	2.04956e-05	1.36566e-05	1.00769e-05	6.39343e-06
0.514465	0.00137726	0.00130005	0.00120636	0.00110077	0.000982056	0.000846558	0.000689392	0.000505676	0.000303162	0.000207703	0.000128357	0.000100952	7.5592e-05	6.32324e-05	3.93127e-05	2.69135e-05	1.4917e-05	9.03625e-06	6.44226e-06	4.92859e-06	3.33862e-06
0.682861	0.00121063	0.00110168	0.000974121	0.000838623	0.000699158	0.000559692	0.000425934	0.000303467	0.000195007	0.000145508	9.8175e-05	7.93762e-05	6.073e-05	5.12695e-05	3.25043e-05	2.26013e-05	1.315e-05	8.36792e-06	6.09436e-06	4.71497e-06	3.32336e-06
0.748962	0.00036792	0.000294159	0.000218018	0.000148254	8.72192e-05	3.69324e-05	-1.06812e-07	-2.14294e-05	-2.47589e-05	-1.94153e-05	-9.77783e-06	-5.38025e-06	-7.26318e-07	1.41907e-06	5.6488e-06	7.1991e-06	7.21741e-06	5.65186e-06	4.3457e-06	3.48816e-06	2.60315e-06
0.580383	-0.000270111	-0.000271515	-0.000265472	-0.000252075	-0.000231262	-0.000203461	-0.000169098	-0.000129059	-8.46558e-05	-6.14319e-05	-3.74847e-05	-2.78961e-05	-1.83258e-05	-1.36932e-05	-4.55322e-06	-2.65503e-07	2.78015e-06	2.97546e-06	2.52686e-06	2.10266e-06	1.70898e-06
0.412201	-0.00048288	-0.000454102	-0.000418396	-0.000378082	-0.000333618	-0.000285339	-0.000233459	-0.000178406	-0.000120209	-8.99048e-05	-5.85327e-05	-4.58069e-05	-3.28339e-05	-2.63702e-05	-1.32019e-05	-6.46667e-06	-7.01904e-07	1.08643e-06	1.26038e-06	1.18103e-06	1.05286e-06
0.243958	-0.000834656	-0.000799561	-0.000758667	-0.000714417	-0.000666504	-0.000614624	-0.000557861	-0.000493958	-0.000409424	-0.000352966	-0.00028186	-0.000246155	-0.000203949	-0.000178925	-0.000120514	-8.39233e-05	-4.34113e-05	-2.22046e-05	-1.37665e-05	-9.57947e-06	-5.44739e-06
0.0756531	-0.00136292	-0.00129486	-0.0012088	-0.00111084	-0.00099884	-0.000870361	-0.00072113	-0.000544434	-0.000342102	-0.000240387	-0.000148773	-0.00011615	-8.56628e-05	-7.1167e-05	-4.30145e-05	-2.87628e-05	-1.48041e-05	-8.10242e-06	-5.4657e-06	-4.03137e-06	-2.45056e-06
-0.0928345	-0.00132629	-0.0012088	-0.00107819	-0.000940552	-0.00079895	-0.000656433	-0.000516357	-0.000381378	-0.000252258	-0.000190094	-0.000128815	-0.000104736	-8.04138e-05	-6.83899e-05	-4.27734e-05	-2.92145e-05	-1.5274e-05	-8.54797e-06	-5.96008e-06	-4.65393e-06	-3.23792e-06
-0.139313	-0.000366821	-0.000289978	-0.000213562	-0.000140808	-7.36084e-05	-1.38916e-05	3.57452e-05	7.0282e-05	8.12683e-05	7.33948e-05	5.50537e-05	4.4986e-05	3.33649e-05	2.72278e-05	1.3855e-05	6.70471e-06	2.99072e-07	-1.70288e-06	-1.85852e-06	-1.67236e-06	-1.34277e-06
0.00512085	0.000368988	0.00037735	0.000374512	0.000362823	0.000341858	0.000311066	0.000269501	0.000216064	0.000150421	0.000113647	7.47375e-05	5.9021e-05	4.296875E-05	3.5144e-05	1.87805e-05	1.04706e-05	3.02124e-06	4.5166e-07	-3.96729e-08	-1.67847e-07	-2.13623e-07